           1               Distribution indicator
   1620.87963384591        Mean Wall Temperature in Combustion Space (K)
   2494.67872694376        Max Temperature in Combustion Space (K)
   1098171.93970711        Heat Transfer to Melter (W)

         Surface Radiation Heat Flux (W/m**2)

    X  /  Y     -0.310     -0.155      0.188      0.476      0.582      0.589      0.596      0.670      0.808      0.882      0.889
     -0.310 0.0000E+00 0.0000E+00 0.0000E+00 0.0000E+00 0.0000E+00 0.0000E+00 0.0000E+00 0.0000E+00 0.0000E+00 0.0000E+00 0.0000E+00
     -0.232 0.0000E+00 0.0000E+00 0.0000E+00 0.0000E+00 0.0000E+00 0.0000E+00 0.0000E+00 0.0000E+00 0.0000E+00 0.0000E+00 0.0000E+00
     -0.077 0.0000E+00 0.0000E+00 0.0000E+00 0.0000E+00 0.0000E+00 0.0000E+00 0.0000E+00 0.0000E+00 0.0000E+00 0.0000E+00 0.0000E+00
      0.233 0.0000E+00 0.0000E+00 0.1389E+06 0.1546E+06 0.1544E+06 0.1543E+06 0.1542E+06 0.1545E+06 0.1533E+06 0.1517E+06 0.1517E+06
      0.700 0.0000E+00 0.0000E+00 0.1074E+06 0.1206E+06 0.1226E+06 0.1229E+06 0.1229E+06 0.1252E+06 0.1258E+06 0.1240E+06 0.1240E+06
      1.167 0.0000E+00 0.0000E+00 0.8119E+05 0.9584E+05 0.9969E+05 0.1001E+06 0.1002E+06 0.1035E+06 0.1054E+06 0.1037E+06 0.1037E+06
      1.633 0.0000E+00 0.0000E+00 0.5755E+05 0.8074E+05 0.8693E+05 0.8747E+05 0.8787E+05 0.9267E+05 0.9689E+05 0.9594E+05 0.9595E+05
      2.100 0.0000E+00 0.0000E+00 0.4980E+05 0.7427E+05 0.7973E+05 0.8022E+05 0.8050E+05 0.8409E+05 0.8814E+05 0.8792E+05 0.8800E+05
      2.567 0.0000E+00 0.0000E+00 0.4687E+05 0.6719E+05 0.7043E+05 0.7069E+05 0.7088E+05 0.7343E+05 0.7580E+05 0.7585E+05 0.7592E+05
      3.033 0.0000E+00 0.0000E+00 0.4469E+05 0.5658E+05 0.5740E+05 0.5749E+05 0.5752E+05 0.5833E+05 0.5819E+05 0.5692E+05 0.5684E+05
      3.500 0.0000E+00 0.0000E+00 0.3230E+05 0.4368E+05 0.4262E+05 0.4257E+05 0.4248E+05 0.4206E+05 0.4066E+05 0.3956E+05 0.3950E+05
      3.967 0.0000E+00 0.0000E+00 0.2298E+05 0.3151E+05 0.2971E+05 0.2960E+05 0.2942E+05 0.2815E+05 0.2646E+05 0.2612E+05 0.2612E+05
      4.433 0.0000E+00 0.0000E+00 0.1751E+05 0.2249E+05 0.2128E+05 0.2118E+05 0.2110E+05 0.2042E+05 0.1960E+05 0.1951E+05 0.1952E+05
      4.900 0.0000E+00 0.0000E+00 0.1511E+05 0.1782E+05 0.1725E+05 0.1720E+05 0.1717E+05 0.1688E+05 0.1650E+05 0.1647E+05 0.1646E+05
      5.367 0.0000E+00 0.0000E+00 0.1535E+05 0.1487E+05 0.1477E+05 0.1477E+05 0.1476E+05 0.1476E+05 0.1474E+05 0.1474E+05 0.1474E+05
      5.833 0.0000E+00 0.0000E+00 0.1336E+05 0.1356E+05 0.1362E+05 0.1362E+05 0.1362E+05 0.1370E+05 0.1380E+05 0.1381E+05 0.1383E+05
      6.300 0.0000E+00 0.0000E+00 0.1237E+05 0.1299E+05 0.1308E+05 0.1309E+05 0.1309E+05 0.1320E+05 0.1337E+05 0.1342E+05 0.1343E+05
      6.767 0.0000E+00 0.0000E+00 0.1255E+05 0.1284E+05 0.1312E+05 0.1312E+05 0.1311E+05 0.1331E+05 0.1352E+05 0.1354E+05 0.1355E+05
      7.155 0.0000E+00 0.0000E+00 0.0000E+00 0.0000E+00 0.0000E+00 0.0000E+00 0.0000E+00 0.0000E+00 0.0000E+00 0.0000E+00 0.0000E+00
      7.310 0.0000E+00 0.0000E+00 0.0000E+00 0.0000E+00 0.0000E+00 0.0000E+00 0.0000E+00 0.0000E+00 0.0000E+00 0.0000E+00 0.0000E+00

    X  /  Y      0.896      1.000      1.300      1.700      1.960      2.081      2.202      2.323      2.444      2.565      2.813
     -0.310 0.0000E+00 0.0000E+00 0.0000E+00 0.0000E+00 0.0000E+00 0.0000E+00 0.0000E+00 0.0000E+00 0.0000E+00 0.0000E+00 0.0000E+00
     -0.232 0.0000E+00 0.0000E+00 0.0000E+00 0.0000E+00 0.0000E+00 0.0000E+00 0.0000E+00 0.0000E+00 0.0000E+00 0.0000E+00 0.0000E+00
     -0.077 0.0000E+00 0.0000E+00 0.0000E+00 0.0000E+00 0.0000E+00 0.0000E+00 0.0000E+00 0.0000E+00 0.0000E+00 0.0000E+00 0.0000E+00
      0.233 0.1517E+06 0.1530E+06 0.1473E+06 0.1397E+06 0.1358E+06 0.1343E+06 0.1311E+06 0.1282E+06 0.1253E+06 0.1214E+06 0.1098E+06
      0.700 0.1237E+06 0.1210E+06 0.1127E+06 0.1087E+06 0.1095E+06 0.1086E+06 0.1067E+06 0.1044E+06 0.1017E+06 0.9807E+05 0.8809E+05
      1.167 0.1034E+06 0.1004E+06 0.8969E+05 0.8439E+05 0.9202E+05 0.9355E+05 0.9118E+05 0.8904E+05 0.8635E+05 0.8280E+05 0.7389E+05
      1.633 0.9575E+05 0.9298E+05 0.7958E+05 0.7765E+05 0.8905E+05 0.9188E+05 0.8981E+05 0.8759E+05 0.8386E+05 0.7781E+05 0.6447E+05
      2.100 0.8781E+05 0.8549E+05 0.7612E+05 0.7827E+05 0.8879E+05 0.9136E+05 0.9104E+05 0.8940E+05 0.8591E+05 0.7918E+05 0.6564E+05
      2.567 0.7582E+05 0.7384E+05 0.6974E+05 0.7343E+05 0.7987E+05 0.8233E+05 0.8330E+05 0.8340E+05 0.8125E+05 0.7682E+05 0.6630E+05
      3.033 0.5663E+05 0.5392E+05 0.5126E+05 0.5408E+05 0.5995E+05 0.6383E+05 0.6681E+05 0.6922E+05 0.6884E+05 0.6390E+05 0.5290E+05
      3.500 0.3934E+05 0.3761E+05 0.3666E+05 0.3980E+05 0.4439E+05 0.4789E+05 0.5122E+05 0.5382E+05 0.5385E+05 0.4969E+05 0.4073E+05
      3.967 0.2607E+05 0.2559E+05 0.2640E+05 0.2928E+05 0.3213E+05 0.3426E+05 0.3609E+05 0.3743E+05 0.3726E+05 0.3466E+05 0.2933E+05
      4.433 0.1952E+05 0.1952E+05 0.2081E+05 0.2294E+05 0.2458E+05 0.2567E+05 0.2647E+05 0.2700E+05 0.2677E+05 0.2532E+05 0.2230E+05
      4.900 0.1645E+05 0.1654E+05 0.1710E+05 0.1839E+05 0.1947E+05 0.1994E+05 0.1985E+05 0.2002E+05 0.2014E+05 0.2032E+05 0.2024E+05
      5.367 0.1475E+05 0.1487E+05 0.1526E+05 0.1597E+05 0.1661E+05 0.1681E+05 0.1694E+05 0.1662E+05 0.1663E+05 0.1650E+05 0.1617E+05
      5.833 0.1384E+05 0.1397E+05 0.1429E+05 0.1471E+05 0.1487E+05 0.1497E+05 0.1500E+05 0.1498E+05 0.1496E+05 0.1482E+05 0.1441E+05
      6.300 0.1343E+05 0.1362E+05 0.1404E+05 0.1431E+05 0.1432E+05 0.1435E+05 0.1433E+05 0.1428E+05 0.1422E+05 0.1412E+05 0.1326E+05
      6.767 0.1356E+05 0.1395E+05 0.1442E+05 0.1450E+05 0.1418E+05 0.1413E+05 0.1410E+05 0.1400E+05 0.1392E+05 0.1382E+05 0.1311E+05
      7.155 0.0000E+00 0.0000E+00 0.0000E+00 0.0000E+00 0.0000E+00 0.0000E+00 0.0000E+00 0.0000E+00 0.0000E+00 0.0000E+00 0.0000E+00
      7.310 0.0000E+00 0.0000E+00 0.0000E+00 0.0000E+00 0.0000E+00 0.0000E+00 0.0000E+00 0.0000E+00 0.0000E+00 0.0000E+00 0.0000E+00

    X  /  Y      3.155      3.310
     -0.310 0.0000E+00 0.0000E+00
     -0.232 0.0000E+00 0.0000E+00
     -0.077 0.0000E+00 0.0000E+00
      0.233 0.0000E+00 0.0000E+00
      0.700 0.0000E+00 0.0000E+00
      1.167 0.0000E+00 0.0000E+00
      1.633 0.0000E+00 0.0000E+00
      2.100 0.0000E+00 0.0000E+00
      2.567 0.0000E+00 0.0000E+00
      3.033 0.0000E+00 0.0000E+00
      3.500 0.0000E+00 0.0000E+00
      3.967 0.0000E+00 0.0000E+00
      4.433 0.0000E+00 0.0000E+00
      4.900 0.0000E+00 0.0000E+00
      5.367 0.0000E+00 0.0000E+00
      5.833 0.0000E+00 0.0000E+00
      6.300 0.0000E+00 0.0000E+00
      6.767 0.0000E+00 0.0000E+00
      7.155 0.0000E+00 0.0000E+00
      7.310 0.0000E+00 0.0000E+00
