           1  Distribution indicator
   12206844.3386962       Energy required by melter (W)
   13167104.2172421       Combustion Heat Transfer to Melter (W)
   1422.72205903257       Mean Surface Temperature (K)

         Relaxed Surface Temperature (K)

 X / Y          -0.310     -0.155      0.077      0.756      1.958      3.160      4.362      5.564      6.766      7.968      9.170
     -0.310        0.0        0.0        0.0        0.0        0.0        0.0        0.0        0.0        0.0        0.0        0.0
     -0.155        0.0        0.0        0.0        0.0        0.0        0.0        0.0        0.0        0.0        0.0        0.0
      0.744        0.0        0.0     1545.4     1503.6     1454.0     1481.6     1495.3     1475.1     1462.6     1474.5     1621.9
      2.232        0.0        0.0     1548.2     1525.5     1470.2     1499.8     1513.8     1491.1     1476.3     1477.8     1624.6
      2.977        0.0        0.0     1549.1     1538.8     1479.7     1509.7     1522.8     1498.4     1482.8     1480.8     1624.9
      3.174        0.0        0.0     1549.4     1542.4     1482.3     1512.3     1525.2     1500.3     1484.6     1481.6     1625.0
      3.383        0.0        0.0     1549.6     1546.1     1484.9     1515.0     1527.7     1502.4     1486.4     1482.5     1625.0
      3.409        0.0        0.0     1549.6     1546.6     1485.3     1515.4     1528.0     1502.6     1486.7     1482.6     1625.1
      3.619        0.0        0.0     1549.9     1550.2     1487.9     1518.1     1530.5     1504.7     1488.5     1483.5     1625.1
      4.011        0.0        0.0     1549.8     1555.1     1491.5     1522.3     1534.7     1508.2     1491.8     1485.9     1623.4
      4.221        0.0        0.0     1549.8     1557.7     1493.4     1524.5     1536.9     1510.2     1493.6     1487.2     1622.6
      4.247        0.0        0.0     1549.8     1558.0     1493.7     1524.8     1537.2     1510.4     1493.8     1487.4     1622.4
      4.456        0.0        0.0     1549.8     1560.6     1495.6     1527.0     1539.3     1512.3     1495.6     1488.7     1621.6
      4.653        0.0        0.0     1549.7     1563.0     1497.4     1529.1     1541.4     1514.1     1497.2     1489.9     1620.7
      5.326        0.0        0.0     1549.7     1571.2     1503.4     1535.9     1548.3     1520.2     1502.9     1494.7     1617.8
      6.214        0.0        0.0     1549.9     1581.4     1510.7     1544.5     1557.2     1528.0     1510.2     1501.9     1613.8
      6.443        0.0        0.0     1549.9     1584.0     1512.6     1546.7     1559.5     1530.1     1512.1     1503.7     1612.8
      6.469        0.0        0.0     1549.9     1584.4     1512.8     1546.9     1559.7     1530.3     1512.3     1503.9     1612.7
      6.697        0.0        0.0     1551.0     1586.7     1513.7     1548.8     1561.8     1532.2     1514.1     1505.8     1614.4
      7.128        0.0        0.0     1553.1     1591.2     1515.1     1552.2     1565.6     1535.7     1517.4     1509.2     1618.0
      7.356        0.0        0.0     1554.3     1593.5     1515.9     1554.0     1567.6     1537.5     1519.2     1511.1     1619.9
      7.382        0.0        0.0     1554.4     1593.8     1515.9     1554.2     1567.8     1537.8     1519.3     1511.3     1620.1
      7.592        0.0        0.0     1555.5     1595.9     1516.7     1555.8     1569.7     1539.5     1521.0     1513.0     1621.9
      7.807        0.0        0.0     1556.5     1598.1     1517.4     1557.5     1571.6     1541.2     1522.6     1514.7     1623.7
      8.549        0.0        0.0     1567.2     1601.6     1517.0     1561.6     1577.9     1546.9     1528.1     1520.1     1634.4
      9.488        0.0        0.0     1583.6     1604.9     1521.4     1566.5     1585.5     1553.5     1534.5     1526.5     1650.1
      9.716        0.0        0.0     1589.6     1605.6     1531.5     1568.2     1586.8     1554.4     1535.4     1527.7     1655.6
      9.742        0.0        0.0     1590.3     1605.7     1532.6     1568.3     1587.0     1554.5     1535.5     1527.9     1656.2
      9.970        0.0        0.0     1596.4     1606.3     1542.6     1570.0     1588.3     1555.3     1536.4     1529.1     1661.7
     10.401        0.0        0.0     1607.8     1607.5     1561.6     1573.0     1590.9     1557.0     1538.1     1531.4     1672.1
     10.629        0.0        0.0     1613.9     1608.2     1571.6     1574.6     1592.2     1557.9     1539.0     1532.6     1677.6
     10.655        0.0        0.0     1614.6     1608.2     1572.8     1574.8     1592.4     1558.0     1539.1     1532.7     1678.2
     10.884        0.0        0.0     1620.6     1611.4     1582.3     1577.0     1593.3     1558.5     1539.7     1533.9     1683.0
     11.835        0.0        0.0     1644.7     1644.2     1618.2     1591.4     1593.1     1558.4     1539.9     1537.6     1696.2
     12.779        0.0        0.0     1661.6     1659.5     1643.9     1610.9     1596.0     1564.0     1543.3     1541.5     1700.4
     13.001        0.0        0.0     1664.3     1660.0     1648.1     1616.4     1597.2     1566.4     1544.6     1542.5     1699.7
     13.027        0.0        0.0     1664.6     1660.0     1648.6     1617.1     1597.3     1566.7     1544.8     1542.6     1699.7
     13.250        0.0        0.0     1667.3     1660.4     1652.8     1622.6     1598.6     1569.1     1546.2     1543.6     1699.0
     13.667        0.0        0.0     1672.4     1661.2     1660.7     1633.0     1600.9     1573.6     1548.7     1545.4     1697.8
     13.889        0.0        0.0     1673.2     1662.6     1661.8     1636.5     1607.0     1580.7     1551.0     1546.7     1694.9
     13.916        0.0        0.0     1673.3     1662.8     1661.8     1636.9     1607.8     1581.6     1551.3     1546.8     1694.6
     14.136        0.0        0.0     1674.0     1664.2     1662.6     1640.2     1614.5     1589.2     1553.6     1548.2     1691.5
     14.346        0.0        0.0     1674.6     1665.6     1663.3     1643.2     1620.8     1596.4     1555.9     1549.4     1688.5
     15.095        0.0        0.0     1676.9     1670.5     1665.7     1654.3     1643.3     1622.1     1563.9     1553.9     1678.1
     16.071        0.0        0.0     1665.9     1670.5     1667.2     1655.4     1643.2     1639.8     1585.6     1557.7     1719.5
     16.312        0.0        0.0     1665.8     1670.4     1667.3     1655.6     1643.0     1639.2     1587.8     1560.1     1742.6
     16.338        0.0        0.0     1665.8     1670.3     1667.2     1655.6     1643.0     1639.1     1588.1     1560.1     1741.6
     16.579        0.0        0.0     1666.3     1669.7     1666.3     1655.0     1643.2     1638.4     1590.6     1559.7     1732.2
     17.034        0.0        0.0     1667.3     1668.6     1664.4     1653.9     1643.5     1637.0     1595.3     1558.9     1714.9
     17.275        0.0        0.0     1668.2     1667.3     1662.1     1651.8     1641.5     1636.1     1596.6     1559.1     1712.6
     17.301        0.0        0.0     1668.3     1667.2     1661.8     1651.6     1641.3     1636.0     1596.7     1559.1     1712.4
     17.542        0.0        0.0     1669.1     1666.0     1659.5     1649.5     1639.4     1635.0     1598.0     1559.3     1710.2
     18.522        0.0        0.0     1671.2     1660.5     1649.5     1639.6     1630.8     1629.2     1599.5     1560.4     1711.3
     19.406        0.0        0.0     1652.9     1647.9     1639.0     1631.5     1623.9     1625.0     1597.9     1561.2     1716.1
     19.550        0.0        0.0     1648.7     1644.7     1637.1     1630.3     1622.9     1624.5     1597.6     1561.3     1716.8
     19.576        0.0        0.0     1648.0     1644.1     1636.7     1630.0     1622.7     1624.5     1597.5     1561.3     1716.9
     19.721        0.0        0.0     1643.8     1640.9     1634.8     1628.8     1621.6     1624.0     1597.1     1561.3     1717.6
     19.983        0.0        0.0     1636.2     1635.0     1631.3     1626.5     1619.7     1623.2     1596.4     1561.5     1718.8
     20.128        0.0        0.0     1633.6     1632.7     1629.7     1625.4     1618.8     1623.0     1595.8     1562.9     1719.6
     20.154        0.0        0.0     1633.3     1632.3     1629.5     1625.2     1618.6     1622.9     1595.7     1563.3     1719.8
     20.298        0.0        0.0     1631.5     1630.5     1628.1     1624.2     1617.7     1622.7     1595.0     1565.5     1720.7
     21.180        0.0        0.0     1622.6     1620.6     1620.9     1618.1     1612.7     1622.0     1591.2     1585.2     1726.6
     22.682        0.0        0.0     1610.9     1610.3     1612.4     1609.5     1609.2     1619.3     1587.2     1597.5     1737.9
     24.183        0.0        0.0     1602.5     1603.2     1605.5     1603.6     1608.4     1611.6     1586.3     1598.5     1749.2
     25.685        0.0        0.0     1596.1     1597.8     1600.0     1599.8     1605.6     1603.2     1587.1     1599.4     1758.8
     27.187        0.0        0.0     1590.9     1593.4     1595.6     1596.4     1601.8     1597.7     1587.2     1600.5     1766.1
     28.688        0.0        0.0     1586.7     1589.8     1591.9     1593.2     1598.1     1594.1     1586.7     1601.6     1771.2
     30.190        0.0        0.0     1583.1     1586.9     1588.7     1590.3     1595.1     1591.4     1585.4     1602.6     1774.2
     31.692        0.0        0.0     1580.3     1584.1     1585.9     1587.5     1592.6     1589.4     1583.4     1603.6     1776.3
     33.193        0.0        0.0     1578.0     1581.9     1583.1     1585.2     1590.8     1587.6     1580.7     1604.6     1778.3
     34.695        0.0        0.0     1576.3     1580.1     1580.2     1583.1     1590.0     1586.0     1576.8     1605.5     1780.8
     36.197        0.0        0.0     1574.9     1578.8     1577.6     1580.9     1589.9     1585.0     1571.9     1606.7     1784.5
     37.699        0.0        0.0     1573.6     1577.6     1575.7     1578.7     1590.1     1585.2     1565.3     1608.9     1789.8
     39.200        0.0        0.0     1572.1     1577.1     1574.8     1576.0     1590.0     1586.8     1555.5     1611.6     1794.7
     40.702        0.0        0.0     1569.9     1576.6     1575.8     1572.0     1587.4     1595.2     1538.9     1612.6     1795.3
     41.608        0.0        0.0        0.0        0.0        0.0        0.0        0.0        0.0        0.0        0.0        0.0
     41.763        0.0        0.0        0.0        0.0        0.0        0.0        0.0        0.0        0.0        0.0        0.0

 X / Y          10.372     11.128     11.283
     -0.310        0.0        0.0        0.0
     -0.155        0.0        0.0        0.0
      0.744       11.9        0.0        0.0
      2.232       11.9        0.0        0.0
      2.977       11.9        0.0        0.0
      3.174       11.9        0.0        0.0
      3.383       11.9        0.0        0.0
      3.409       11.9        0.0        0.0
      3.619       11.9        0.0        0.0
      4.011       11.9        0.0        0.0
      4.221       11.9        0.0        0.0
      4.247       11.9        0.0        0.0
      4.456       11.9        0.0        0.0
      4.653       11.9        0.0        0.0
      5.326       11.9        0.0        0.0
      6.214       11.9        0.0        0.0
      6.443       11.9        0.0        0.0
      6.469       11.9        0.0        0.0
      6.697       11.9        0.0        0.0
      7.128       11.9        0.0        0.0
      7.356       11.9        0.0        0.0
      7.382       11.9        0.0        0.0
      7.592       11.9        0.0        0.0
      7.807       11.9        0.0        0.0
      8.549       11.9        0.0        0.0
      9.488       11.9        0.0        0.0
      9.716       11.9        0.0        0.0
      9.742       11.9        0.0        0.0
      9.970       11.9        0.0        0.0
     10.401       11.9        0.0        0.0
     10.629       11.9        0.0        0.0
     10.655       11.9        0.0        0.0
     10.884       11.9        0.0        0.0
     11.835       11.9        0.0        0.0
     12.779       11.9        0.0        0.0
     13.001       11.9        0.0        0.0
     13.027       11.9        0.0        0.0
     13.250       11.9        0.0        0.0
     13.667       11.9        0.0        0.0
     13.889       11.9        0.0        0.0
     13.916       11.9        0.0        0.0
     14.136       11.9        0.0        0.0
     14.346       11.9        0.0        0.0
     15.095       11.9        0.0        0.0
     16.071       11.9        0.0        0.0
     16.312       11.9        0.0        0.0
     16.338       11.9        0.0        0.0
     16.579       11.9        0.0        0.0
     17.034       11.9        0.0        0.0
     17.275       11.9        0.0        0.0
     17.301       11.9        0.0        0.0
     17.542       11.9        0.0        0.0
     18.522       11.9        0.0        0.0
     19.406       11.9        0.0        0.0
     19.550       11.9        0.0        0.0
     19.576       11.9        0.0        0.0
     19.721       11.9        0.0        0.0
     19.983       11.9        0.0        0.0
     20.128       11.9        0.0        0.0
     20.154       11.9        0.0        0.0
     20.298       11.9        0.0        0.0
     21.180       11.9        0.0        0.0
     22.682       11.9        0.0        0.0
     24.183       11.9        0.0        0.0
     25.685       11.9        0.0        0.0
     27.187       11.9        0.0        0.0
     28.688       11.9        0.0        0.0
     30.190       11.9        0.0        0.0
     31.692       11.9        0.0        0.0
     33.193       11.9        0.0        0.0
     34.695       11.9        0.0        0.0
     36.197       11.9        0.0        0.0
     37.699       11.9        0.0        0.0
     39.200       11.9        0.0        0.0
     40.702       11.9        0.0        0.0
     41.608        0.0        0.0        0.0
     41.763        0.0        0.0        0.0

   1422.72205903257       Input Mean Surface Temperature (K)
   1422.72205903257       Relaxed Mean Surface Temperature (K)
  8.192000000000003E-002  Relaxation Factor
           0  number times t is >t_mx
