           1               Distribution indicator
   1632.36065459989        Mean Wall Temperature in Combustion Space (K)
   2561.87648895418        Max Temperature in Combustion Space (K)
   1072428.01660258        Heat Transfer to Melter (W)

         Surface Radiation Heat Flux (W/m**2)

    X  /  Y     -0.310     -0.155      0.188      0.435      0.556      0.677      0.798      0.919      1.040      1.300      1.700
     -0.310 0.0000E+00 0.0000E+00 0.0000E+00 0.0000E+00 0.0000E+00 0.0000E+00 0.0000E+00 0.0000E+00 0.0000E+00 0.0000E+00 0.0000E+00
     -0.232 0.0000E+00 0.0000E+00 0.0000E+00 0.0000E+00 0.0000E+00 0.0000E+00 0.0000E+00 0.0000E+00 0.0000E+00 0.0000E+00 0.0000E+00
     -0.077 0.0000E+00 0.0000E+00 0.0000E+00 0.0000E+00 0.0000E+00 0.0000E+00 0.0000E+00 0.0000E+00 0.0000E+00 0.0000E+00 0.0000E+00
      0.233 0.0000E+00 0.0000E+00 0.1073E+06 0.1193E+06 0.1231E+06 0.1264E+06 0.1298E+06 0.1339E+06 0.1366E+06 0.1425E+06 0.1521E+06
      0.700 0.0000E+00 0.0000E+00 0.8302E+05 0.9246E+05 0.9574E+05 0.9827E+05 0.1009E+06 0.1031E+06 0.1047E+06 0.1093E+06 0.1148E+06
      1.167 0.0000E+00 0.0000E+00 0.6826E+05 0.7578E+05 0.7923E+05 0.8194E+05 0.8398E+05 0.8474E+05 0.8369E+05 0.8424E+05 0.9166E+05
      1.633 0.0000E+00 0.0000E+00 0.5903E+05 0.7365E+05 0.7832E+05 0.8109E+05 0.8309E+05 0.8454E+05 0.8485E+05 0.8030E+05 0.8383E+05
      2.100 0.0000E+00 0.0000E+00 0.6151E+05 0.7757E+05 0.8167E+05 0.8417E+05 0.8619E+05 0.8778E+05 0.8817E+05 0.8335E+05 0.8469E+05
      2.567 0.0000E+00 0.0000E+00 0.6327E+05 0.7545E+05 0.7776E+05 0.7968E+05 0.8133E+05 0.8215E+05 0.8169E+05 0.7816E+05 0.7568E+05
      3.033 0.0000E+00 0.0000E+00 0.5193E+05 0.6570E+05 0.6551E+05 0.6700E+05 0.6764E+05 0.6650E+05 0.6414E+05 0.6065E+05 0.5761E+05
      3.500 0.0000E+00 0.0000E+00 0.3985E+05 0.5301E+05 0.5132E+05 0.5204E+05 0.5228E+05 0.4979E+05 0.4495E+05 0.4214E+05 0.3927E+05
      3.967 0.0000E+00 0.0000E+00 0.2859E+05 0.3672E+05 0.3591E+05 0.3654E+05 0.3674E+05 0.3514E+05 0.3233E+05 0.3045E+05 0.2814E+05
      4.433 0.0000E+00 0.0000E+00 0.2218E+05 0.2646E+05 0.2635E+05 0.2690E+05 0.2709E+05 0.2633E+05 0.2481E+05 0.2372E+05 0.2168E+05
      4.900 0.0000E+00 0.0000E+00 0.1911E+05 0.1950E+05 0.1982E+05 0.2024E+05 0.2048E+05 0.2026E+05 0.1963E+05 0.1911E+05 0.1776E+05
      5.367 0.0000E+00 0.0000E+00 0.1364E+05 0.1527E+05 0.1582E+05 0.1632E+05 0.1663E+05 0.1668E+05 0.1610E+05 0.1633E+05 0.1560E+05
      5.833 0.0000E+00 0.0000E+00 0.1011E+05 0.1244E+05 0.1321E+05 0.1387E+05 0.1435E+05 0.1457E+05 0.1461E+05 0.1477E+05 0.1407E+05
      6.300 0.0000E+00 0.0000E+00 0.7287E+04 0.1002E+05 0.1115E+05 0.1205E+05 0.1272E+05 0.1315E+05 0.1338E+05 0.1387E+05 0.1385E+05
      6.767 0.0000E+00 0.0000E+00 0.1676E+02 0.6766E+04 0.8037E+04 0.9478E+04 0.1059E+05 0.1142E+05 0.1208E+05 0.1312E+05 0.1369E+05
      7.155 0.0000E+00 0.0000E+00 0.0000E+00 0.0000E+00 0.0000E+00 0.0000E+00 0.0000E+00 0.0000E+00 0.0000E+00 0.0000E+00 0.0000E+00
      7.310 0.0000E+00 0.0000E+00 0.0000E+00 0.0000E+00 0.0000E+00 0.0000E+00 0.0000E+00 0.0000E+00 0.0000E+00 0.0000E+00 0.0000E+00

    X  /  Y      1.989      2.082      2.089      2.096      2.170      2.309      2.382      2.389      2.396      2.513      2.812
     -0.310 0.0000E+00 0.0000E+00 0.0000E+00 0.0000E+00 0.0000E+00 0.0000E+00 0.0000E+00 0.0000E+00 0.0000E+00 0.0000E+00 0.0000E+00
     -0.232 0.0000E+00 0.0000E+00 0.0000E+00 0.0000E+00 0.0000E+00 0.0000E+00 0.0000E+00 0.0000E+00 0.0000E+00 0.0000E+00 0.0000E+00
     -0.077 0.0000E+00 0.0000E+00 0.0000E+00 0.0000E+00 0.0000E+00 0.0000E+00 0.0000E+00 0.0000E+00 0.0000E+00 0.0000E+00 0.0000E+00
      0.233 0.1541E+06 0.1519E+06 0.1488E+06 0.1492E+06 0.1536E+06 0.1549E+06 0.1546E+06 0.1544E+06 0.1539E+06 0.1530E+06 0.1399E+06
      0.700 0.1180E+06 0.1192E+06 0.1154E+06 0.1160E+06 0.1215E+06 0.1210E+06 0.1188E+06 0.1185E+06 0.1179E+06 0.1154E+06 0.1068E+06
      1.167 0.9583E+05 0.9770E+05 0.9358E+05 0.9438E+05 0.1000E+06 0.9795E+05 0.9441E+05 0.9374E+05 0.9291E+05 0.8887E+05 0.8043E+05
      1.633 0.8940E+05 0.9147E+05 0.8719E+05 0.8810E+05 0.9311E+05 0.8918E+05 0.8479E+05 0.8359E+05 0.8133E+05 0.7289E+05 0.5697E+05
      2.100 0.8384E+05 0.8445E+05 0.8026E+05 0.8100E+05 0.8502E+05 0.8112E+05 0.7802E+05 0.7730E+05 0.7531E+05 0.6748E+05 0.5165E+05
      2.567 0.7349E+05 0.7218E+05 0.6797E+05 0.6852E+05 0.7198E+05 0.6945E+05 0.6778E+05 0.6847E+05 0.6795E+05 0.6214E+05 0.5015E+05
      3.033 0.5428E+05 0.5093E+05 0.4598E+05 0.4679E+05 0.5287E+05 0.5252E+05 0.5269E+05 0.5468E+05 0.5489E+05 0.4980E+05 0.3901E+05
      3.500 0.3724E+05 0.3467E+05 0.3235E+05 0.3286E+05 0.3441E+05 0.3474E+05 0.3658E+05 0.3976E+05 0.4098E+05 0.3739E+05 0.2968E+05
      3.967 0.2560E+05 0.2396E+05 0.2278E+05 0.2314E+05 0.2391E+05 0.2376E+05 0.2452E+05 0.2612E+05 0.2687E+05 0.2531E+05 0.2187E+05
      4.433 0.1977E+05 0.1878E+05 0.1811E+05 0.1828E+05 0.1860E+05 0.1823E+05 0.1834E+05 0.1896E+05 0.1977E+05 0.2006E+05 0.2085E+05
      4.900 0.1620E+05 0.1564E+05 0.1520E+05 0.1534E+05 0.1558E+05 0.1537E+05 0.1538E+05 0.1565E+05 0.1598E+05 0.1605E+05 0.1565E+05
      5.367 0.1456E+05 0.1423E+05 0.1389E+05 0.1399E+05 0.1420E+05 0.1407E+05 0.1404E+05 0.1419E+05 0.1437E+05 0.1432E+05 0.1387E+05
      5.833 0.1363E+05 0.1341E+05 0.1322E+05 0.1326E+05 0.1338E+05 0.1321E+05 0.1313E+05 0.1323E+05 0.1335E+05 0.1346E+05 0.1192E+05
      6.300 0.1319E+05 0.1299E+05 0.1297E+05 0.1293E+05 0.1293E+05 0.1265E+05 0.1247E+05 0.1250E+05 0.1295E+05 0.1205E+05 0.8785E+04
      6.767 0.1305E+05 0.1276E+05 0.1344E+05 0.1343E+05 0.1307E+05 0.1240E+05 0.1183E+05 0.1173E+05 0.1152E+05 0.8587E+04 0.1485E+04
      7.155 0.0000E+00 0.0000E+00 0.0000E+00 0.0000E+00 0.0000E+00 0.0000E+00 0.0000E+00 0.0000E+00 0.0000E+00 0.0000E+00 0.0000E+00
      7.310 0.0000E+00 0.0000E+00 0.0000E+00 0.0000E+00 0.0000E+00 0.0000E+00 0.0000E+00 0.0000E+00 0.0000E+00 0.0000E+00 0.0000E+00

    X  /  Y      3.155      3.310
     -0.310 0.0000E+00 0.0000E+00
     -0.232 0.0000E+00 0.0000E+00
     -0.077 0.0000E+00 0.0000E+00
      0.233 0.0000E+00 0.0000E+00
      0.700 0.0000E+00 0.0000E+00
      1.167 0.0000E+00 0.0000E+00
      1.633 0.0000E+00 0.0000E+00
      2.100 0.0000E+00 0.0000E+00
      2.567 0.0000E+00 0.0000E+00
      3.033 0.0000E+00 0.0000E+00
      3.500 0.0000E+00 0.0000E+00
      3.967 0.0000E+00 0.0000E+00
      4.433 0.0000E+00 0.0000E+00
      4.900 0.0000E+00 0.0000E+00
      5.367 0.0000E+00 0.0000E+00
      5.833 0.0000E+00 0.0000E+00
      6.300 0.0000E+00 0.0000E+00
      6.767 0.0000E+00 0.0000E+00
      7.155 0.0000E+00 0.0000E+00
      7.310 0.0000E+00 0.0000E+00
