           1               Distribution indicator
   1588.56272464624        Mean Wall Temperature in Combustion Space (K)
   2515.66876572471        Max Temperature in Combustion Space (K)
   792385.814153820        Heat Transfer to Melter (W)

         Surface Radiation Heat Flux (W/m**2)

    X  /  Y     -0.310     -0.155      0.188      0.435      0.556      0.677      0.798      0.919      1.040      1.300      1.700
     -0.310 0.0000E+00 0.0000E+00 0.0000E+00 0.0000E+00 0.0000E+00 0.0000E+00 0.0000E+00 0.0000E+00 0.0000E+00 0.0000E+00 0.0000E+00
     -0.232 0.0000E+00 0.0000E+00 0.0000E+00 0.0000E+00 0.0000E+00 0.0000E+00 0.0000E+00 0.0000E+00 0.0000E+00 0.0000E+00 0.0000E+00
     -0.077 0.0000E+00 0.0000E+00 0.0000E+00 0.0000E+00 0.0000E+00 0.0000E+00 0.0000E+00 0.0000E+00 0.0000E+00 0.0000E+00 0.0000E+00
      0.233 0.0000E+00 0.0000E+00 0.9467E+05 0.1050E+06 0.1087E+06 0.1113E+06 0.1139E+06 0.1165E+06 0.1174E+06 0.1182E+06 0.1189E+06
      0.700 0.0000E+00 0.0000E+00 0.7297E+05 0.8045E+05 0.8353E+05 0.8518E+05 0.8649E+05 0.8797E+05 0.8848E+05 0.8892E+05 0.8735E+05
      1.167 0.0000E+00 0.0000E+00 0.5859E+05 0.6510E+05 0.6871E+05 0.7034E+05 0.7109E+05 0.7146E+05 0.7060E+05 0.6864E+05 0.7168E+05
      1.633 0.0000E+00 0.0000E+00 0.5011E+05 0.6340E+05 0.6827E+05 0.7011E+05 0.7093E+05 0.7144E+05 0.7079E+05 0.6632E+05 0.6720E+05
      2.100 0.0000E+00 0.0000E+00 0.4723E+05 0.6122E+05 0.6531E+05 0.6750E+05 0.6872E+05 0.6915E+05 0.6761E+05 0.6315E+05 0.6142E+05
      2.567 0.0000E+00 0.0000E+00 0.4184E+05 0.5252E+05 0.5540E+05 0.5799E+05 0.5977E+05 0.6019E+05 0.5822E+05 0.5490E+05 0.5240E+05
      3.033 0.0000E+00 0.0000E+00 0.3379E+05 0.4026E+05 0.4116E+05 0.4317E+05 0.4478E+05 0.4534E+05 0.4343E+05 0.4160E+05 0.4020E+05
      3.500 0.0000E+00 0.0000E+00 0.2346E+05 0.2964E+05 0.2874E+05 0.2937E+05 0.3000E+05 0.2930E+05 0.2695E+05 0.2562E+05 0.2445E+05
      3.967 0.0000E+00 0.0000E+00 0.1657E+05 0.2199E+05 0.2024E+05 0.2034E+05 0.2039E+05 0.1905E+05 0.1697E+05 0.1648E+05 0.1572E+05
      4.433 0.0000E+00 0.0000E+00 0.1214E+05 0.1583E+05 0.1473E+05 0.1472E+05 0.1464E+05 0.1379E+05 0.1263E+05 0.1254E+05 0.1191E+05
      4.900 0.0000E+00 0.0000E+00 0.1011E+05 0.1259E+05 0.1200E+05 0.1202E+05 0.1201E+05 0.1152E+05 0.1087E+05 0.1085E+05 0.1044E+05
      5.367 0.0000E+00 0.0000E+00 0.9363E+04 0.1085E+05 0.1053E+05 0.1057E+05 0.1060E+05 0.1031E+05 0.9911E+04 0.9917E+04 0.9683E+04
      5.833 0.0000E+00 0.0000E+00 0.9598E+04 0.9832E+04 0.9652E+04 0.9688E+04 0.9722E+04 0.9596E+04 0.9400E+04 0.9398E+04 0.9254E+04
      6.300 0.0000E+00 0.0000E+00 0.9429E+04 0.9238E+04 0.9472E+04 0.9368E+04 0.9308E+04 0.9294E+04 0.9288E+04 0.9274E+04 0.9199E+04
      6.767 0.0000E+00 0.0000E+00 0.1236E+05 0.1010E+05 0.9675E+04 0.9233E+04 0.9238E+04 0.9229E+04 0.9341E+04 0.9252E+04 0.9260E+04
      7.155 0.0000E+00 0.0000E+00 0.0000E+00 0.0000E+00 0.0000E+00 0.0000E+00 0.0000E+00 0.0000E+00 0.0000E+00 0.0000E+00 0.0000E+00
      7.310 0.0000E+00 0.0000E+00 0.0000E+00 0.0000E+00 0.0000E+00 0.0000E+00 0.0000E+00 0.0000E+00 0.0000E+00 0.0000E+00 0.0000E+00

    X  /  Y      1.989      2.082      2.089      2.096      2.170      2.309      2.382      2.389      2.396      2.513      2.812
     -0.310 0.0000E+00 0.0000E+00 0.0000E+00 0.0000E+00 0.0000E+00 0.0000E+00 0.0000E+00 0.0000E+00 0.0000E+00 0.0000E+00 0.0000E+00
     -0.232 0.0000E+00 0.0000E+00 0.0000E+00 0.0000E+00 0.0000E+00 0.0000E+00 0.0000E+00 0.0000E+00 0.0000E+00 0.0000E+00 0.0000E+00
     -0.077 0.0000E+00 0.0000E+00 0.0000E+00 0.0000E+00 0.0000E+00 0.0000E+00 0.0000E+00 0.0000E+00 0.0000E+00 0.0000E+00 0.0000E+00
      0.233 0.1127E+06 0.1102E+06 0.1074E+06 0.1084E+06 0.1111E+06 0.1122E+06 0.1108E+06 0.1109E+06 0.1105E+06 0.1122E+06 0.1044E+06
      0.700 0.8578E+05 0.8493E+05 0.8169E+05 0.8298E+05 0.8647E+05 0.8660E+05 0.8570E+05 0.8597E+05 0.8551E+05 0.8441E+05 0.7905E+05
      1.167 0.7224E+05 0.7305E+05 0.7218E+05 0.7428E+05 0.7574E+05 0.7389E+05 0.7118E+05 0.7065E+05 0.6942E+05 0.6588E+05 0.5767E+05
      1.633 0.7206E+05 0.7364E+05 0.7290E+05 0.7486E+05 0.7614E+05 0.7252E+05 0.6858E+05 0.6736E+05 0.6510E+05 0.5772E+05 0.4079E+05
      2.100 0.6219E+05 0.6321E+05 0.6017E+05 0.6109E+05 0.6353E+05 0.6125E+05 0.5934E+05 0.5965E+05 0.5835E+05 0.4983E+05 0.3548E+05
      2.567 0.5031E+05 0.4927E+05 0.4335E+05 0.4398E+05 0.4692E+05 0.4496E+05 0.4427E+05 0.4584E+05 0.4622E+05 0.4172E+05 0.3354E+05
      3.033 0.3785E+05 0.3434E+05 0.2781E+05 0.2756E+05 0.3071E+05 0.2993E+05 0.3132E+05 0.3410E+05 0.3501E+05 0.3119E+05 0.2338E+05
      3.500 0.2261E+05 0.1923E+05 0.1572E+05 0.1605E+05 0.1836E+05 0.1926E+05 0.2098E+05 0.2340E+05 0.2414E+05 0.2151E+05 0.1571E+05
      3.967 0.1429E+05 0.1282E+05 0.1157E+05 0.1179E+05 0.1291E+05 0.1357E+05 0.1453E+05 0.1575E+05 0.1608E+05 0.1478E+05 0.1161E+05
      4.433 0.1106E+05 0.1049E+05 0.9985E+04 0.1009E+05 0.1068E+05 0.1100E+05 0.1145E+05 0.1205E+05 0.1218E+05 0.1165E+05 0.1007E+05
      4.900 0.9837E+04 0.9490E+04 0.9160E+04 0.9159E+04 0.9506E+04 0.9672E+04 0.9879E+04 0.1021E+05 0.1035E+05 0.1018E+05 0.9443E+04
      5.367 0.9199E+04 0.8909E+04 0.8617E+04 0.8578E+04 0.8792E+04 0.8815E+04 0.8864E+04 0.9008E+04 0.9279E+04 0.9771E+04 0.1016E+05
      5.833 0.8868E+04 0.8615E+04 0.8402E+04 0.8338E+04 0.8481E+04 0.8466E+04 0.8393E+04 0.8475E+04 0.8592E+04 0.8823E+04 0.8697E+04
      6.300 0.8870E+04 0.8632E+04 0.8505E+04 0.8426E+04 0.8493E+04 0.8404E+04 0.8303E+04 0.8375E+04 0.8408E+04 0.8605E+04 0.8164E+04
      6.767 0.9054E+04 0.8822E+04 0.8945E+04 0.8845E+04 0.8711E+04 0.8549E+04 0.8321E+04 0.8317E+04 0.8124E+04 0.8253E+04 0.8832E+04
      7.155 0.0000E+00 0.0000E+00 0.0000E+00 0.0000E+00 0.0000E+00 0.0000E+00 0.0000E+00 0.0000E+00 0.0000E+00 0.0000E+00 0.0000E+00
      7.310 0.0000E+00 0.0000E+00 0.0000E+00 0.0000E+00 0.0000E+00 0.0000E+00 0.0000E+00 0.0000E+00 0.0000E+00 0.0000E+00 0.0000E+00

    X  /  Y      3.155      3.310
     -0.310 0.0000E+00 0.0000E+00
     -0.232 0.0000E+00 0.0000E+00
     -0.077 0.0000E+00 0.0000E+00
      0.233 0.0000E+00 0.0000E+00
      0.700 0.0000E+00 0.0000E+00
      1.167 0.0000E+00 0.0000E+00
      1.633 0.0000E+00 0.0000E+00
      2.100 0.0000E+00 0.0000E+00
      2.567 0.0000E+00 0.0000E+00
      3.033 0.0000E+00 0.0000E+00
      3.500 0.0000E+00 0.0000E+00
      3.967 0.0000E+00 0.0000E+00
      4.433 0.0000E+00 0.0000E+00
      4.900 0.0000E+00 0.0000E+00
      5.367 0.0000E+00 0.0000E+00
      5.833 0.0000E+00 0.0000E+00
      6.300 0.0000E+00 0.0000E+00
      6.767 0.0000E+00 0.0000E+00
      7.155 0.0000E+00 0.0000E+00
      7.310 0.0000E+00 0.0000E+00
