           1               Distribution indicator
   1591.69973308543        Mean Wall Temperature in Combustion Space (K)
   2446.47518911156        Max Temperature in Combustion Space (K)
   827791.207258409        Heat Transfer to Melter (W)

         Surface Radiation Heat Flux (W/m**2)

    X  /  Y     -0.310     -0.155      0.188      0.476      0.582      0.589      0.596      0.670      0.808      0.882      0.889
     -0.310 0.0000E+00 0.0000E+00 0.0000E+00 0.0000E+00 0.0000E+00 0.0000E+00 0.0000E+00 0.0000E+00 0.0000E+00 0.0000E+00 0.0000E+00
     -0.232 0.0000E+00 0.0000E+00 0.0000E+00 0.0000E+00 0.0000E+00 0.0000E+00 0.0000E+00 0.0000E+00 0.0000E+00 0.0000E+00 0.0000E+00
     -0.077 0.0000E+00 0.0000E+00 0.0000E+00 0.0000E+00 0.0000E+00 0.0000E+00 0.0000E+00 0.0000E+00 0.0000E+00 0.0000E+00 0.0000E+00
      0.233 0.0000E+00 0.0000E+00 0.1103E+06 0.1165E+06 0.1161E+06 0.1160E+06 0.1159E+06 0.1164E+06 0.1161E+06 0.1154E+06 0.1155E+06
      0.700 0.0000E+00 0.0000E+00 0.8540E+05 0.8902E+05 0.8970E+05 0.8979E+05 0.8979E+05 0.9147E+05 0.9201E+05 0.9094E+05 0.9095E+05
      1.167 0.0000E+00 0.0000E+00 0.6396E+05 0.7064E+05 0.7315E+05 0.7342E+05 0.7354E+05 0.7636E+05 0.7865E+05 0.7790E+05 0.7796E+05
      1.633 0.0000E+00 0.0000E+00 0.4453E+05 0.6126E+05 0.6746E+05 0.6792E+05 0.6832E+05 0.7254E+05 0.7713E+05 0.7718E+05 0.7725E+05
      2.100 0.0000E+00 0.0000E+00 0.3919E+05 0.5278E+05 0.5813E+05 0.5866E+05 0.5905E+05 0.6325E+05 0.6724E+05 0.6750E+05 0.6758E+05
      2.567 0.0000E+00 0.0000E+00 0.3638E+05 0.4525E+05 0.4741E+05 0.4758E+05 0.4773E+05 0.4982E+05 0.5276E+05 0.5307E+05 0.5314E+05
      3.033 0.0000E+00 0.0000E+00 0.2964E+05 0.3625E+05 0.3651E+05 0.3652E+05 0.3656E+05 0.3721E+05 0.3713E+05 0.3631E+05 0.3630E+05
      3.500 0.0000E+00 0.0000E+00 0.2097E+05 0.2722E+05 0.2584E+05 0.2574E+05 0.2567E+05 0.2496E+05 0.2328E+05 0.2216E+05 0.2206E+05
      3.967 0.0000E+00 0.0000E+00 0.1504E+05 0.2030E+05 0.1824E+05 0.1812E+05 0.1800E+05 0.1679E+05 0.1502E+05 0.1463E+05 0.1457E+05
      4.433 0.0000E+00 0.0000E+00 0.1147E+05 0.1480E+05 0.1352E+05 0.1346E+05 0.1338E+05 0.1267E+05 0.1175E+05 0.1165E+05 0.1165E+05
      4.900 0.0000E+00 0.0000E+00 0.9946E+04 0.1207E+05 0.1131E+05 0.1127E+05 0.1122E+05 0.1087E+05 0.1039E+05 0.1033E+05 0.1033E+05
      5.367 0.0000E+00 0.0000E+00 0.9346E+04 0.1059E+05 0.1012E+05 0.1009E+05 0.1007E+05 0.9895E+04 0.9642E+04 0.9597E+04 0.9604E+04
      5.833 0.0000E+00 0.0000E+00 0.9654E+04 0.9594E+04 0.9306E+04 0.9300E+04 0.9303E+04 0.9299E+04 0.9244E+04 0.9205E+04 0.9196E+04
      6.300 0.0000E+00 0.0000E+00 0.8771E+04 0.9153E+04 0.8962E+04 0.8953E+04 0.8961E+04 0.9111E+04 0.9238E+04 0.9199E+04 0.9202E+04
      6.767 0.0000E+00 0.0000E+00 0.9746E+04 0.8900E+04 0.8723E+04 0.8705E+04 0.8715E+04 0.9079E+04 0.9390E+04 0.9313E+04 0.9326E+04
      7.155 0.0000E+00 0.0000E+00 0.0000E+00 0.0000E+00 0.0000E+00 0.0000E+00 0.0000E+00 0.0000E+00 0.0000E+00 0.0000E+00 0.0000E+00
      7.310 0.0000E+00 0.0000E+00 0.0000E+00 0.0000E+00 0.0000E+00 0.0000E+00 0.0000E+00 0.0000E+00 0.0000E+00 0.0000E+00 0.0000E+00

    X  /  Y      0.896      1.000      1.300      1.700      1.960      2.081      2.202      2.323      2.444      2.565      2.813
     -0.310 0.0000E+00 0.0000E+00 0.0000E+00 0.0000E+00 0.0000E+00 0.0000E+00 0.0000E+00 0.0000E+00 0.0000E+00 0.0000E+00 0.0000E+00
     -0.232 0.0000E+00 0.0000E+00 0.0000E+00 0.0000E+00 0.0000E+00 0.0000E+00 0.0000E+00 0.0000E+00 0.0000E+00 0.0000E+00 0.0000E+00
     -0.077 0.0000E+00 0.0000E+00 0.0000E+00 0.0000E+00 0.0000E+00 0.0000E+00 0.0000E+00 0.0000E+00 0.0000E+00 0.0000E+00 0.0000E+00
      0.233 0.1156E+06 0.1175E+06 0.1209E+06 0.1211E+06 0.1214E+06 0.1211E+06 0.1193E+06 0.1174E+06 0.1149E+06 0.1109E+06 0.9969E+05
      0.700 0.9086E+05 0.9009E+05 0.8877E+05 0.9119E+05 0.9206E+05 0.9246E+05 0.9215E+05 0.9149E+05 0.8985E+05 0.8620E+05 0.7692E+05
      1.167 0.7782E+05 0.7690E+05 0.7500E+05 0.7492E+05 0.7787E+05 0.7905E+05 0.7873E+05 0.7782E+05 0.7555E+05 0.7113E+05 0.6154E+05
      1.633 0.7716E+05 0.7628E+05 0.7116E+05 0.7461E+05 0.7904E+05 0.8038E+05 0.7998E+05 0.7854E+05 0.7513E+05 0.6872E+05 0.5495E+05
      2.100 0.6743E+05 0.6471E+05 0.6082E+05 0.6509E+05 0.7135E+05 0.7398E+05 0.7487E+05 0.7450E+05 0.7166E+05 0.6515E+05 0.5123E+05
      2.567 0.5306E+05 0.5087E+05 0.4771E+05 0.5088E+05 0.5732E+05 0.6001E+05 0.6124E+05 0.6120E+05 0.5934E+05 0.5449E+05 0.4546E+05
      3.033 0.3619E+05 0.3475E+05 0.3133E+05 0.3244E+05 0.3768E+05 0.4035E+05 0.4221E+05 0.4388E+05 0.4348E+05 0.3965E+05 0.3170E+05
      3.500 0.2194E+05 0.2060E+05 0.1916E+05 0.2084E+05 0.2352E+05 0.2554E+05 0.2781E+05 0.2987E+05 0.3016E+05 0.2737E+05 0.2148E+05
      3.967 0.1454E+05 0.1415E+05 0.1446E+05 0.1547E+05 0.1680E+05 0.1786E+05 0.1906E+05 0.2024E+05 0.2046E+05 0.1891E+05 0.1553E+05
      4.433 0.1162E+05 0.1172E+05 0.1220E+05 0.1316E+05 0.1385E+05 0.1407E+05 0.1468E+05 0.1529E+05 0.1539E+05 0.1454E+05 0.1247E+05
      4.900 0.1032E+05 0.1048E+05 0.1087E+05 0.1145E+05 0.1186E+05 0.1220E+05 0.1252E+05 0.1283E+05 0.1288E+05 0.1247E+05 0.1130E+05
      5.367 0.9597E+04 0.9784E+04 0.1007E+05 0.1040E+05 0.1067E+05 0.1082E+05 0.1097E+05 0.1106E+05 0.1123E+05 0.1149E+05 0.1159E+05
      5.833 0.9209E+04 0.9423E+04 0.9697E+04 0.9901E+04 0.1008E+05 0.1018E+05 0.1024E+05 0.1027E+05 0.1031E+05 0.1029E+05 0.9842E+04
      6.300 0.9211E+04 0.9402E+04 0.9691E+04 0.9842E+04 0.9948E+04 0.1001E+05 0.1007E+05 0.1014E+05 0.1017E+05 0.9794E+04 0.9341E+04
      6.767 0.9333E+04 0.9635E+04 0.1006E+05 0.1014E+05 0.1001E+05 0.1005E+05 0.1015E+05 0.9954E+04 0.9941E+04 0.9676E+04 0.9309E+04
      7.155 0.0000E+00 0.0000E+00 0.0000E+00 0.0000E+00 0.0000E+00 0.0000E+00 0.0000E+00 0.0000E+00 0.0000E+00 0.0000E+00 0.0000E+00
      7.310 0.0000E+00 0.0000E+00 0.0000E+00 0.0000E+00 0.0000E+00 0.0000E+00 0.0000E+00 0.0000E+00 0.0000E+00 0.0000E+00 0.0000E+00

    X  /  Y      3.155      3.310
     -0.310 0.0000E+00 0.0000E+00
     -0.232 0.0000E+00 0.0000E+00
     -0.077 0.0000E+00 0.0000E+00
      0.233 0.0000E+00 0.0000E+00
      0.700 0.0000E+00 0.0000E+00
      1.167 0.0000E+00 0.0000E+00
      1.633 0.0000E+00 0.0000E+00
      2.100 0.0000E+00 0.0000E+00
      2.567 0.0000E+00 0.0000E+00
      3.033 0.0000E+00 0.0000E+00
      3.500 0.0000E+00 0.0000E+00
      3.967 0.0000E+00 0.0000E+00
      4.433 0.0000E+00 0.0000E+00
      4.900 0.0000E+00 0.0000E+00
      5.367 0.0000E+00 0.0000E+00
      5.833 0.0000E+00 0.0000E+00
      6.300 0.0000E+00 0.0000E+00
      6.767 0.0000E+00 0.0000E+00
      7.155 0.0000E+00 0.0000E+00
      7.310 0.0000E+00 0.0000E+00
